# RDF of electron around oxygen in water (assuming spherical distribution).
# Calculated at MP2/cc-pvTZ.
# total number of electrons:
10
#r(A) e-density (A^-3)
0.025  5.545000e+01
0.050  8.089720e+01
0.075  8.735320e+01
0.100  8.822460e+01
0.125  8.863780e+01
0.150  6.567570e+01
0.175  4.580320e+01
0.200  2.696170e+01
0.225  1.710870e+01
0.250  1.185140e+01
0.275  8.845180e+00
0.300  7.283870e+00
0.325  6.401280e+00
0.350  5.748240e+00
0.375  5.218290e+00
0.400  4.778640e+00
0.425  4.389400e+00
0.450  4.009930e+00
0.475  3.651800e+00
0.500  3.320150e+00
0.525  3.006760e+00
0.550  2.709950e+00
0.575  2.443660e+00
0.600  2.212910e+00
0.625  1.980690e+00
0.650  1.785010e+00
0.675  1.608710e+00
0.700  1.446290e+00
0.725  1.306440e+00
0.750  1.180100e+00
0.775  1.066360e+00
0.800  9.629560e-01
0.825  8.721470e-01
0.850  7.875140e-01
0.875  7.130750e-01
0.900  6.448030e-01
0.925  5.790130e-01
0.950  5.216320e-01
0.975  4.670180e-01
1.000  4.190150e-01
1.025  3.745840e-01
1.050  3.342150e-01
1.075  2.986130e-01
1.100  2.656330e-01
1.125  2.367010e-01
1.150  2.107350e-01
1.175  1.878340e-01
1.200  1.668330e-01
1.225  1.489110e-01
1.250  1.324730e-01
1.275  1.179010e-01
1.300  1.054670e-01
1.325  9.383850e-02
1.350  8.371740e-02
1.375  7.495150e-02
1.400  6.683250e-02
1.425  5.963250e-02
1.450  5.349460e-02
1.475  4.775410e-02
1.500  4.263610e-02
1.525  3.822110e-02
1.550  3.414620e-02
1.575  3.052100e-02
1.600  2.730500e-02
1.625  2.439610e-02
1.650  2.177880e-02
1.675  1.947550e-02
1.700  1.735910e-02
1.725  1.548900e-02
1.750  1.381040e-02
1.775  1.229070e-02
1.800  1.092700e-02
1.825  9.717980e-03
1.850  8.629360e-03
1.875  7.654100e-03
1.900  6.781870e-03
1.925  6.002720e-03
1.950  5.303710e-03
1.975  4.679650e-03
2.000  4.132960e-03
2.025  3.637750e-03
2.050  3.198800e-03
2.075  2.812020e-03
2.100  2.465950e-03
2.125  2.162610e-03
2.150  1.894410e-03
2.175  1.656080e-03
2.200  1.446070e-03
2.225  1.264290e-03
2.250  1.101520e-03
2.275  9.590020e-04
2.300  8.360350e-04
2.325  7.262100e-04
2.350  6.315700e-04
2.375  5.490540e-04
2.400  4.768000e-04
2.425  4.135120e-04
2.450  3.590740e-04
2.475  3.111130e-04
2.500  2.698980e-04
2.525  2.343910e-04
2.550  2.035230e-04
2.575  1.770090e-04
2.600  1.541530e-04
2.625  1.340740e-04
2.650  1.166900e-04
2.675  1.015960e-04
2.700  8.825020e-05
2.725  7.670440e-05
2.750  6.673350e-05
2.775  5.809810e-05
2.800  5.068190e-05
2.825  4.435280e-05
2.850  3.884940e-05
2.875  3.397430e-05
2.900  2.988790e-05
2.925  2.623910e-05
2.950  2.307520e-05
2.975  2.033220e-05
3.000  1.798030e-05
3.025  1.582620e-05
3.050  1.401520e-05
3.075  1.243650e-05
3.100  1.098700e-05
3.125  9.772820e-06
3.150  8.675960e-06
3.175  7.707270e-06
3.200  6.853650e-06
3.225  6.122650e-06
3.250  5.426600e-06
3.275  4.843970e-06
3.300  4.321820e-06
3.325  3.853700e-06
3.350  3.432840e-06
3.375  3.058370e-06
3.400  2.732280e-06
3.425  2.421960e-06
3.450  2.167200e-06
3.475  1.927810e-06
3.500  1.709360e-06
3.525  1.526720e-06
3.550  1.348040e-06
3.575  1.187910e-06
3.600  1.053960e-06
3.625  9.303310e-07
3.650  8.080860e-07
3.675  7.157660e-07
3.700  6.266700e-07
3.725  5.534870e-07
3.750  4.891460e-07
3.775  4.359630e-07
3.800  3.876780e-07
3.825  3.444410e-07
3.850  3.079810e-07
3.875  2.722650e-07
3.900  2.411620e-07
3.925  2.125220e-07
3.950  1.878650e-07
3.975  1.647810e-07
4.000  1.453910e-07
